Wavelength (Angstroms)     Irradiance (Watts/m2/Angstrom)
      2794.0000                     6.857414e-03
      2794.0100                     6.785786e-03
      2794.0200                     6.714160e-03
      2794.0300                     6.690254e-03
      2794.0400                     6.693270e-03
      2794.0500                     6.696286e-03
      2794.0600                     6.699302e-03
      2794.0700                     6.702318e-03
      2794.0800                     6.705333e-03
      2794.0900                     6.708349e-03
      2794.1000                     6.711365e-03
      2794.1100                     6.714381e-03
      2794.1200                     6.717396e-03
      2794.1300                     6.703521e-03
      2794.1400                     6.680016e-03
      2794.1500                     6.656511e-03
      2794.1600                     6.633006e-03
      2794.1700                     6.609502e-03
      2794.1800                     6.585998e-03
      2794.1900                     6.562494e-03
      2794.2000                     6.538990e-03
      2794.2100                     6.515487e-03
      2794.2200                     6.491984e-03
      2794.2300                     6.470439e-03
      2794.2400                     6.450022e-03
      2794.2500                     6.429606e-03
      2794.2600                     6.409189e-03
      2794.2700                     6.388773e-03
      2794.2800                     6.368357e-03
      2794.2900                     6.347941e-03
      2794.3000                     6.327526e-03
      2794.3100                     6.307111e-03
      2794.3200                     6.286696e-03
      2794.3300                     6.257630e-03
      2794.3400                     6.223528e-03
      2794.3500                     6.189426e-03
      2794.3600                     6.155325e-03
      2794.3700                     6.121224e-03
      2794.3800                     6.087124e-03
      2794.3900                     6.053024e-03
      2794.4000                     6.018925e-03
      2794.4100                     5.984826e-03
      2794.4200                     5.950727e-03
      2794.4300                     5.934098e-03
      2794.4400                     5.927748e-03
      2794.4500                     5.921399e-03
      2794.4600                     5.915050e-03
      2794.4700                     5.908700e-03
      2794.4800                     5.902351e-03
      2794.4900                     5.896002e-03
      2794.5000                     5.889653e-03
      2794.5100                     5.883304e-03
      2794.5200                     5.876955e-03
      2794.5300                     5.872115e-03
      2794.5400                     5.868171e-03
      2794.5500                     5.864227e-03
      2794.5600                     5.860283e-03
      2794.5700                     5.856340e-03
      2794.5800                     5.852396e-03
      2794.5900                     5.848452e-03
      2794.6000                     5.844509e-03
      2794.6100                     5.840565e-03
      2794.6200                     5.836622e-03
      2794.6300                     5.825554e-03
      2794.6400                     5.810207e-03
      2794.6500                     5.794860e-03
      2794.6600                     5.779513e-03
      2794.6700                     5.764167e-03
      2794.6800                     5.748820e-03
      2794.6900                     5.733474e-03
      2794.7000                     5.718128e-03
      2794.7100                     5.702782e-03
      2794.7200                     5.687436e-03
      2794.7300                     5.612911e-03
      2794.7400                     5.502459e-03
      2794.7500                     5.392008e-03
      2794.7600                     5.281559e-03
      2794.7700                     5.171112e-03
      2794.7800                     5.060665e-03
      2794.7900                     4.950221e-03
      2794.8000                     4.839777e-03
      2794.8100                     4.729336e-03
      2794.8200                     4.618895e-03
      2794.8300                     4.624436e-03
      2794.8400                     4.701121e-03
      2794.8500                     4.777805e-03
      2794.8600                     4.854489e-03
      2794.8700                     4.931171e-03
      2794.8800                     5.007852e-03
      2794.8900                     5.084532e-03
      2794.9000                     5.161211e-03
      2794.9100                     5.237889e-03
      2794.9200                     5.314566e-03
      2794.9300                     5.314044e-03
      2794.9400                     5.265675e-03
      2794.9500                     5.217307e-03
      2794.9600                     5.168939e-03
      2794.9700                     5.120572e-03
      2794.9800                     5.072206e-03
      2794.9900                     5.023840e-03
      2795.0000                     4.975475e-03
      2795.0100                     4.927110e-03
      2795.0200                     4.878747e-03
      2795.0300                     4.841413e-03
      2795.0400                     4.810985e-03
      2795.0500                     4.780558e-03
      2795.0600                     4.750131e-03
      2795.0700                     4.719705e-03
      2795.0800                     4.689279e-03
      2795.0900                     4.658853e-03
      2795.1000                     4.628428e-03
      2795.1100                     4.598003e-03
      2795.1200                     4.567579e-03
      2795.1300                     4.568176e-03
      2795.1400                     4.588401e-03
      2795.1500                     4.608625e-03
      2795.1600                     4.628850e-03
      2795.1700                     4.649073e-03
      2795.1800                     4.669297e-03
      2795.1900                     4.689520e-03
      2795.2000                     4.709743e-03
      2795.2100                     4.729966e-03
      2795.2200                     4.750189e-03
      2795.2300                     4.712269e-03
      2795.2400                     4.637184e-03
      2795.2500                     4.562099e-03
      2795.2600                     4.487016e-03
      2795.2700                     4.411934e-03
      2795.2800                     4.336852e-03
      2795.2900                     4.261772e-03
      2795.3000                     4.186692e-03
      2795.3100                     4.111613e-03
      2795.3200                     4.036536e-03
      2795.3300                     3.968424e-03
      2795.3400                     3.904812e-03
      2795.3500                     3.841200e-03
      2795.3600                     3.777589e-03
      2795.3700                     3.713979e-03
      2795.3800                     3.650370e-03
      2795.3900                     3.586762e-03
      2795.4000                     3.523154e-03
      2795.4100                     3.459548e-03
      2795.4200                     3.395942e-03
      2795.4300                     3.372261e-03
      2795.4400                     3.374629e-03
      2795.4500                     3.376997e-03
      2795.4600                     3.379365e-03
      2795.4700                     3.381733e-03
      2795.4800                     3.384101e-03
      2795.4900                     3.386469e-03
      2795.5000                     3.388837e-03
      2795.5100                     3.391205e-03
      2795.5200                     3.393572e-03
      2795.5300                     3.316502e-03
      2795.5400                     3.187070e-03
      2795.5500                     3.057641e-03
      2795.5600                     2.928213e-03
      2795.5700                     2.798787e-03
      2795.5800                     2.669362e-03
      2795.5900                     2.539939e-03
      2795.6000                     2.410518e-03
      2795.6100                     2.281098e-03
      2795.6200                     2.151681e-03
      2795.6300                     2.147920e-03
      2795.6400                     2.227832e-03
      2795.6500                     2.307744e-03
      2795.6600                     2.387654e-03
      2795.6700                     2.467563e-03
      2795.6800                     2.547471e-03
      2795.6900                     2.627378e-03
      2795.7000                     2.707284e-03
      2795.7100                     2.787189e-03
      2795.7200                     2.867093e-03
      2795.7300                     2.939041e-03
      2795.7400                     3.005637e-03
      2795.7500                     3.072231e-03
      2795.7600                     3.138825e-03
      2795.7700                     3.205418e-03
      2795.7800                     3.272011e-03
      2795.7900                     3.338602e-03
      2795.8000                     3.405192e-03
      2795.8100                     3.471782e-03
      2795.8200                     3.538371e-03
      2795.8300                     3.740557e-03
      2795.8400                     4.034885e-03
      2795.8500                     4.329209e-03
      2795.8600                     4.623530e-03
      2795.8700                     4.917846e-03
      2795.8800                     5.212159e-03
      2795.8900                     5.506468e-03
      2795.9000                     5.800773e-03
      2795.9100                     6.095074e-03
      2795.9200                     6.389372e-03
      2795.9300                     6.936230e-03
      2795.9400                     7.656455e-03
      2795.9500                     8.376671e-03
      2795.9600                     9.096878e-03
      2795.9700                     9.817075e-03
      2795.9800                     1.053726e-02
      2795.9900                     1.125744e-02
      2796.0000                     1.197761e-02
      2796.0100                     1.269777e-02
      2796.0200                     1.341793e-02
      2796.0300                     1.416748e-02
      2796.0400                     1.493742e-02
      2796.0500                     1.570736e-02
      2796.0600                     1.647728e-02
      2796.0700                     1.724720e-02
      2796.0800                     1.801710e-02
      2796.0900                     1.878700e-02
      2796.1000                     1.955688e-02
      2796.1100                     2.032675e-02
      2796.1200                     2.109662e-02
      2796.1300                     2.145705e-02
      2796.1400                     2.153070e-02
      2796.1500                     2.160435e-02
      2796.1600                     2.167799e-02
      2796.1700                     2.175164e-02
      2796.1800                     2.182528e-02
      2796.1900                     2.189893e-02
      2796.2000                     2.197257e-02
      2796.2100                     2.204621e-02
      2796.2200                     2.211985e-02
      2796.2300                     2.184603e-02
      2796.2400                     2.132637e-02
      2796.2500                     2.080672e-02
      2796.2600                     2.028707e-02
      2796.2700                     1.976743e-02
      2796.2800                     1.924780e-02
      2796.2900                     1.872817e-02
      2796.3000                     1.820855e-02
      2796.3100                     1.768894e-02
      2796.3200                     1.716933e-02
      2796.3300                     1.704310e-02
      2796.3400                     1.719801e-02
      2796.3500                     1.735292e-02
      2796.3600                     1.750782e-02
      2796.3700                     1.766272e-02
      2796.3800                     1.781762e-02
      2796.3900                     1.797252e-02
      2796.4000                     1.812742e-02
      2796.4100                     1.828231e-02
      2796.4200                     1.843721e-02
      2796.4300                     1.857208e-02
      2796.4400                     1.869250e-02
      2796.4500                     1.881292e-02
      2796.4600                     1.893333e-02
      2796.4700                     1.905375e-02
      2796.4800                     1.917416e-02
      2796.4900                     1.929457e-02
      2796.5000                     1.941498e-02
      2796.5100                     1.953539e-02
      2796.5200                     1.965580e-02
      2796.5300                     1.932360e-02
      2796.5400                     1.866138e-02
      2796.5500                     1.799916e-02
      2796.5600                     1.733696e-02
      2796.5700                     1.667476e-02
      2796.5800                     1.601257e-02
      2796.5900                     1.535039e-02
      2796.6000                     1.468822e-02
      2796.6100                     1.402606e-02
      2796.6200                     1.336391e-02
      2796.6300                     1.268833e-02
      2796.6400                     1.200286e-02
      2796.6500                     1.131740e-02
      2796.6600                     1.063195e-02
      2796.6700                     9.946508e-03
      2796.6800                     9.261076e-03
      2796.6900                     8.575652e-03
      2796.7000                     7.890237e-03
      2796.7100                     7.204831e-03
      2796.7200                     6.519434e-03
      2796.7300                     6.064734e-03
      2796.7400                     5.781645e-03
      2796.7500                     5.498560e-03
      2796.7600                     5.215478e-03
      2796.7700                     4.932400e-03
      2796.7800                     4.649325e-03
      2796.7900                     4.366254e-03
      2796.8000                     4.083187e-03
      2796.8100                     3.800123e-03
      2796.8200                     3.517063e-03
      2796.8300                     3.390236e-03
      2796.8400                     3.380791e-03
      2796.8500                     3.371347e-03
      2796.8600                     3.361902e-03
      2796.8700                     3.352458e-03
      2796.8800                     3.343014e-03
      2796.8900                     3.333570e-03
      2796.9000                     3.324126e-03
      2796.9100                     3.314682e-03
      2796.9200                     3.305239e-03
      2796.9300                     3.290830e-03
      2796.9400                     3.272654e-03
      2796.9500                     3.254478e-03
      2796.9600                     3.236303e-03
      2796.9700                     3.218128e-03
      2796.9800                     3.199953e-03
      2796.9900                     3.181778e-03
      2797.0000                     3.163603e-03
      2797.0100                     3.145429e-03
      2797.0200                     3.127256e-03
      2797.0300                     3.137108e-03
      2797.0400                     3.168441e-03
      2797.0500                     3.199773e-03
      2797.0600                     3.231104e-03
      2797.0700                     3.262436e-03
      2797.0800                     3.293767e-03
      2797.0900                     3.325097e-03
      2797.1000                     3.356427e-03
      2797.1100                     3.387757e-03
      2797.1200                     3.419086e-03
      2797.1300                     3.479390e-03
      2797.1400                     3.562122e-03
      2797.1500                     3.644853e-03
      2797.1600                     3.727582e-03
      2797.1700                     3.810311e-03
      2797.1800                     3.893039e-03
      2797.1900                     3.975766e-03
      2797.2000                     4.058491e-03
      2797.2100                     4.141216e-03
      2797.2200                     4.223939e-03
      2797.2300                     4.230951e-03
      2797.2400                     4.178771e-03
      2797.2500                     4.126591e-03
      2797.2600                     4.074413e-03
      2797.2700                     4.022235e-03
      2797.2800                     3.970057e-03
      2797.2900                     3.917881e-03
      2797.3000                     3.865705e-03
      2797.3100                     3.813529e-03
      2797.3200                     3.761354e-03
      2797.3300                     3.766999e-03
      2797.3400                     3.818296e-03
      2797.3500                     3.869593e-03
      2797.3600                     3.920890e-03
      2797.3700                     3.972185e-03
      2797.3800                     4.023480e-03
      2797.3900                     4.074774e-03
      2797.4000                     4.126068e-03
      2797.4100                     4.177361e-03
      2797.4200                     4.228653e-03
      2797.4300                     4.296393e-03
      2797.4400                     4.377249e-03
      2797.4500                     4.458103e-03
      2797.4600                     4.538956e-03
      2797.4700                     4.619809e-03
      2797.4800                     4.700660e-03
      2797.4900                     4.781511e-03
      2797.5000                     4.862360e-03
      2797.5100                     4.943209e-03
      2797.5200                     5.024056e-03
      2797.5300                     5.076198e-03
      2797.5400                     5.105222e-03
      2797.5500                     5.134245e-03
      2797.5600                     5.163268e-03
      2797.5700                     5.192291e-03
      2797.5800                     5.221314e-03
      2797.5900                     5.250336e-03
      2797.6000                     5.279357e-03
      2797.6100                     5.308379e-03
      2797.6200                     5.337400e-03
      2797.6300                     5.335542e-03
      2797.6400                     5.308571e-03
      2797.6500                     5.281599e-03
      2797.6600                     5.254628e-03
      2797.6700                     5.227658e-03
      2797.6800                     5.200687e-03
      2797.6900                     5.173717e-03
      2797.7000                     5.146747e-03
      2797.7100                     5.119778e-03
      2797.7200                     5.092809e-03
      2797.7300                     5.107679e-03
      2797.7400                     5.156915e-03
      2797.7500                     5.206151e-03
      2797.7600                     5.255386e-03
      2797.7700                     5.304620e-03
      2797.7800                     5.353854e-03
      2797.7900                     5.403088e-03
      2797.8000                     5.452320e-03
      2797.8100                     5.501552e-03
      2797.8200                     5.550784e-03
      2797.8300                     5.583925e-03
      2797.8400                     5.603718e-03
      2797.8500                     5.623511e-03
      2797.8600                     5.643303e-03
      2797.8700                     5.663096e-03
      2797.8800                     5.682888e-03
      2797.8900                     5.702680e-03
      2797.9000                     5.722472e-03
      2797.9100                     5.742263e-03
      2797.9200                     5.762054e-03
      2797.9300                     5.757204e-03
      2797.9400                     5.731711e-03
      2797.9500                     5.706218e-03
      2797.9600                     5.680725e-03
      2797.9700                     5.655233e-03
      2797.9800                     5.629741e-03
      2797.9900                     5.604249e-03
      2798.0000                     5.578757e-03
      2798.0100                     5.553267e-03
      2798.0200                     5.527777e-03
      2798.0300                     5.529012e-03
      2798.0400                     5.552857e-03
      2798.0500                     5.576702e-03
      2798.0600                     5.600546e-03
      2798.0700                     5.624391e-03
      2798.0800                     5.648235e-03
      2798.0900                     5.672079e-03
      2798.1000                     5.695922e-03
      2798.1100                     5.719765e-03
      2798.1200                     5.743608e-03
      2798.1300                     5.768576e-03
      2798.1400                     5.794505e-03
      2798.1500                     5.820434e-03
      2798.1600                     5.846363e-03
      2798.1700                     5.872291e-03
      2798.1800                     5.898219e-03
      2798.1900                     5.924146e-03
      2798.2000                     5.950074e-03
      2798.2100                     5.976001e-03
      2798.2200                     6.001927e-03
      2798.2300                     6.031447e-03
      2798.2400                     6.064066e-03
      2798.2500                     6.096685e-03
      2798.2600                     6.129304e-03
      2798.2700                     6.161922e-03
      2798.2800                     6.194540e-03
      2798.2900                     6.227157e-03
      2798.3000                     6.259774e-03
      2798.3100                     6.292391e-03
      2798.3200                     6.325007e-03
      2798.3300                     6.358212e-03
      2798.3400                     6.391931e-03
      2798.3500                     6.425649e-03
      2798.3600                     6.459367e-03
      2798.3700                     6.493084e-03
      2798.3800                     6.526801e-03
      2798.3900                     6.560518e-03
      2798.4000                     6.594234e-03
      2798.4100                     6.627950e-03
      2798.4200                     6.661665e-03
      2798.4300                     6.624196e-03
      2798.4400                     6.524091e-03
      2798.4500                     6.423987e-03
      2798.4600                     6.323885e-03
      2798.4700                     6.223784e-03
      2798.4800                     6.123684e-03
      2798.4900                     6.023585e-03
      2798.5000                     5.923487e-03
      2798.5100                     5.823391e-03
      2798.5200                     5.723296e-03
      2798.5300                     5.671523e-03
      2798.5400                     5.662686e-03
      2798.5500                     5.653851e-03
      2798.5600                     5.645015e-03
      2798.5700                     5.636179e-03
      2798.5800                     5.627344e-03
      2798.5900                     5.618508e-03
      2798.6000                     5.609673e-03
      2798.6100                     5.600838e-03
      2798.6200                     5.592003e-03
      2798.6300                     5.462912e-03
      2798.6400                     5.225915e-03
      2798.6500                     4.988920e-03
      2798.6600                     4.751929e-03
      2798.6700                     4.514940e-03
      2798.6800                     4.277954e-03
      2798.6900                     4.040971e-03
      2798.7000                     3.803991e-03
      2798.7100                     3.567014e-03
      2798.7200                     3.330040e-03
      2798.7300                     3.326074e-03
      2798.7400                     3.533248e-03
      2798.7500                     3.740420e-03
      2798.7600                     3.947590e-03
      2798.7700                     4.154757e-03
      2798.7800                     4.361921e-03
      2798.7900                     4.569083e-03
      2798.8000                     4.776242e-03
      2798.8100                     4.983399e-03
      2798.8200                     5.190554e-03
      2798.8300                     5.292683e-03
      2798.8400                     5.298710e-03
      2798.8500                     5.304736e-03
      2798.8600                     5.310762e-03
      2798.8700                     5.316788e-03
      2798.8800                     5.322814e-03
      2798.8900                     5.328840e-03
      2798.9000                     5.334866e-03
      2798.9100                     5.340892e-03
      2798.9200                     5.346917e-03
      2798.9300                     5.283523e-03
      2798.9400                     5.155980e-03
      2798.9500                     5.028438e-03
      2798.9600                     4.900898e-03
      2798.9700                     4.773360e-03
      2798.9800                     4.645823e-03
      2798.9900                     4.518288e-03
      2799.0000                     4.390754e-03
      2799.0100                     4.263224e-03
      2799.0200                     4.135695e-03
      2799.0300                     4.185367e-03
      2799.0400                     4.400392e-03
      2799.0500                     4.615415e-03
      2799.0600                     4.830435e-03
      2799.0700                     5.045453e-03
      2799.0800                     5.260468e-03
      2799.0900                     5.475481e-03
      2799.1000                     5.690492e-03
      2799.1100                     5.905500e-03
      2799.1200                     6.120505e-03
      2799.1300                     6.317996e-03
      2799.1400                     6.498981e-03
      2799.1500                     6.679965e-03
      2799.1600                     6.860946e-03
      2799.1700                     7.041926e-03
      2799.1800                     7.222903e-03
      2799.1900                     7.403878e-03
      2799.2000                     7.584852e-03
      2799.2100                     7.765822e-03
      2799.2200                     7.946792e-03
      2799.2300                     7.977134e-03
      2799.2400                     7.864147e-03
      2799.2500                     7.751162e-03
      2799.2600                     7.638178e-03
      2799.2700                     7.525195e-03
      2799.2800                     7.412213e-03
      2799.2900                     7.299233e-03
      2799.3000                     7.186254e-03
      2799.3100                     7.073276e-03
      2799.3200                     6.960300e-03
      2799.3300                     6.895517e-03
      2799.3400                     6.877045e-03
      2799.3500                     6.858573e-03
      2799.3600                     6.840101e-03
      2799.3700                     6.821629e-03
      2799.3800                     6.803158e-03
      2799.3900                     6.784686e-03
      2799.4000                     6.766215e-03
      2799.4100                     6.747744e-03
      2799.4200                     6.729274e-03
      2799.4300                     6.811693e-03
      2799.4400                     6.992010e-03
      2799.4500                     7.172325e-03
      2799.4600                     7.352637e-03
      2799.4700                     7.532948e-03
      2799.4800                     7.713256e-03
      2799.4900                     7.893562e-03
      2799.5000                     8.073867e-03
      2799.5100                     8.254169e-03
      2799.5200                     8.434469e-03
      2799.5300                     8.482450e-03
      2799.5400                     8.400778e-03
      2799.5500                     8.319106e-03
      2799.5600                     8.237436e-03
      2799.5700                     8.155767e-03
      2799.5800                     8.074098e-03
      2799.5900                     7.992430e-03
      2799.6000                     7.910764e-03
      2799.6100                     7.829098e-03
      2799.6200                     7.747433e-03
      2799.6300                     7.711097e-03
      2799.6400                     7.719613e-03
      2799.6500                     7.728129e-03
      2799.6600                     7.736644e-03
      2799.6700                     7.745160e-03
      2799.6800                     7.753675e-03
      2799.6900                     7.762191e-03
      2799.7000                     7.770706e-03
      2799.7100                     7.779221e-03
      2799.7200                     7.787736e-03
      2799.7300                     7.805148e-03
      2799.7400                     7.831450e-03
      2799.7500                     7.857751e-03
      2799.7600                     7.884053e-03
      2799.7700                     7.910353e-03
      2799.7800                     7.936654e-03
      2799.7900                     7.962954e-03
      2799.8000                     7.989254e-03
      2799.8100                     8.015554e-03
      2799.8200                     8.041853e-03
      2799.8300                     7.974735e-03
      2799.8400                     7.813360e-03
      2799.8500                     7.651987e-03
      2799.8600                     7.490616e-03
      2799.8700                     7.329247e-03
      2799.8800                     7.167879e-03
      2799.8900                     7.006514e-03
      2799.9000                     6.845150e-03
      2799.9100                     6.683788e-03
      2799.9200                     6.522428e-03
      2799.9300                     6.493817e-03
      2799.9400                     6.600462e-03
      2799.9500                     6.707106e-03
      2799.9600                     6.813748e-03
      2799.9700                     6.920390e-03
      2799.9800                     7.027030e-03
      2799.9900                     7.133669e-03
      2800.0000                     7.240307e-03
      2800.0100                     7.346944e-03
      2800.0200                     7.453581e-03
      2800.0300                     7.545101e-03
      2800.0400                     7.621068e-03
      2800.0500                     7.697034e-03
      2800.0600                     7.772999e-03
      2800.0700                     7.848963e-03
      2800.0800                     7.924927e-03
      2800.0900                     8.000890e-03
      2800.1000                     8.076851e-03
      2800.1100                     8.152812e-03
      2800.1200                     8.228772e-03
      2800.1300                     8.277666e-03
      2800.1400                     8.298436e-03
      2800.1500                     8.319207e-03
      2800.1600                     8.339977e-03
      2800.1700                     8.360747e-03
      2800.1800                     8.381517e-03
      2800.1900                     8.402286e-03
      2800.2000                     8.423055e-03
      2800.2100                     8.443824e-03
      2800.2200                     8.464593e-03
      2800.2300                     8.447665e-03
      2800.2400                     8.391183e-03
      2800.2500                     8.334703e-03
      2800.2600                     8.278223e-03
      2800.2700                     8.221744e-03
      2800.2800                     8.165265e-03
      2800.2900                     8.108787e-03
      2800.3000                     8.052310e-03
      2800.3100                     7.995833e-03
      2800.3200                     7.939357e-03
      2800.3300                     7.883776e-03
      2800.3400                     7.829145e-03
      2800.3500                     7.774513e-03
      2800.3600                     7.719883e-03
      2800.3700                     7.665253e-03
      2800.3800                     7.610624e-03
      2800.3900                     7.555995e-03
      2800.4000                     7.501367e-03
      2800.4100                     7.446740e-03
      2800.4200                     7.392113e-03
      2800.4300                     7.350518e-03
      2800.4400                     7.322867e-03
      2800.4500                     7.295216e-03
      2800.4600                     7.267566e-03
      2800.4700                     7.239916e-03
      2800.4800                     7.212266e-03
      2800.4900                     7.184616e-03
      2800.5000                     7.156967e-03
      2800.5100                     7.129318e-03
      2800.5200                     7.101669e-03
      2800.5300                     7.123810e-03
      2800.5400                     7.199746e-03
      2800.5500                     7.275681e-03
      2800.5600                     7.351615e-03
      2800.5700                     7.427549e-03
      2800.5800                     7.503481e-03
      2800.5900                     7.579413e-03
      2800.6000                     7.655343e-03
      2800.6100                     7.731273e-03
      2800.6200                     7.807202e-03
      2800.6300                     7.865250e-03
      2800.6400                     7.903787e-03
      2800.6500                     7.942325e-03
      2800.6600                     7.980862e-03
      2800.6700                     8.019398e-03
      2800.6800                     8.057934e-03
      2800.6900                     8.096470e-03
      2800.7000                     8.135005e-03
      2800.7100                     8.173540e-03
      2800.7200                     8.212074e-03
      2800.7300                     8.232821e-03
      2800.7400                     8.233971e-03
      2800.7500                     8.235121e-03
      2800.7600                     8.236271e-03
      2800.7700                     8.237421e-03
      2800.7800                     8.238571e-03
      2800.7900                     8.239721e-03
      2800.8000                     8.240871e-03
      2800.8100                     8.242021e-03
      2800.8200                     8.243171e-03
      2800.8300                     8.201975e-03
      2800.8400                     8.113664e-03
      2800.8500                     8.025355e-03
      2800.8600                     7.937046e-03
      2800.8700                     7.848739e-03
      2800.8800                     7.760432e-03
      2800.8900                     7.672126e-03
      2800.9000                     7.583822e-03
      2800.9100                     7.495518e-03
      2800.9200                     7.407216e-03
      2800.9300                     7.390757e-03
      2800.9400                     7.455022e-03
      2800.9500                     7.519285e-03
      2800.9600                     7.583548e-03
      2800.9700                     7.647811e-03
      2800.9800                     7.712072e-03
      2800.9900                     7.776333e-03
      2801.0000                     7.840593e-03
      2801.0100                     7.904854e-03
      2801.0200                     7.969115e-03
      2801.0300                     7.994054e-03
      2801.0400                     7.974379e-03
      2801.0500                     7.954703e-03
      2801.0600                     7.935028e-03
      2801.0700                     7.915353e-03
      2801.0800                     7.895678e-03
      2801.0900                     7.876003e-03
      2801.1000                     7.856329e-03
      2801.1100                     7.836654e-03
      2801.1200                     7.816980e-03
      2801.1300                     7.794738e-03
      2801.1400                     7.769552e-03
      2801.1500                     7.744367e-03
      2801.1600                     7.719182e-03
      2801.1700                     7.693998e-03
      2801.1800                     7.668814e-03
      2801.1900                     7.643629e-03
      2801.2000                     7.618446e-03
      2801.2100                     7.593262e-03
      2801.2200                     7.568079e-03
      2801.2300                     7.546588e-03
      2801.2400                     7.529370e-03
      2801.2500                     7.512152e-03
      2801.2600                     7.494934e-03
      2801.2700                     7.477717e-03
      2801.2800                     7.460499e-03
      2801.2900                     7.443282e-03
      2801.3000                     7.426065e-03
      2801.3100                     7.408848e-03
      2801.3200                     7.391631e-03
      2801.3300                     7.361141e-03
      2801.3400                     7.315140e-03
      2801.3500                     7.269140e-03
      2801.3600                     7.223140e-03
      2801.3700                     7.177140e-03
      2801.3800                     7.131142e-03
      2801.3900                     7.085143e-03
      2801.4000                     7.039145e-03
      2801.4100                     6.993148e-03
      2801.4200                     6.947151e-03
      2801.4300                     6.896661e-03
      2801.4400                     6.840870e-03
      2801.4500                     6.785079e-03
      2801.4600                     6.729289e-03
      2801.4700                     6.673499e-03
      2801.4800                     6.617710e-03
      2801.4900                     6.561922e-03
      2801.5000                     6.506134e-03
      2801.5100                     6.450347e-03
      2801.5200                     6.394561e-03
      2801.5300                     6.375935e-03
      2801.5400                     6.401597e-03
      2801.5500                     6.427259e-03
      2801.5600                     6.452921e-03
      2801.5700                     6.478582e-03
      2801.5800                     6.504243e-03
      2801.5900                     6.529903e-03
      2801.6000                     6.555564e-03
      2801.6100                     6.581224e-03
      2801.6200                     6.606884e-03
      2801.6300                     6.603088e-03
      2801.6400                     6.563842e-03
      2801.6500                     6.524596e-03
      2801.6600                     6.485350e-03
      2801.6700                     6.446105e-03
      2801.6800                     6.406860e-03
      2801.6900                     6.367616e-03
      2801.7000                     6.328372e-03
      2801.7100                     6.289128e-03
      2801.7200                     6.249885e-03
      2801.7300                     6.137632e-03
      2801.7400                     5.936637e-03
      2801.7500                     5.735644e-03
      2801.7600                     5.534654e-03
      2801.7700                     5.333665e-03
      2801.7800                     5.132679e-03
      2801.7900                     4.931695e-03
      2801.8000                     4.730712e-03
      2801.8100                     4.529732e-03
      2801.8200                     4.328755e-03
      2801.8300                     4.284437e-03
      2801.8400                     4.432428e-03
      2801.8500                     4.580416e-03
      2801.8600                     4.728404e-03
      2801.8700                     4.876389e-03
      2801.8800                     5.024373e-03
      2801.8900                     5.172355e-03
      2801.9000                     5.320336e-03
      2801.9100                     5.468315e-03
      2801.9200                     5.616293e-03
      2801.9300                     5.726165e-03
      2801.9400                     5.788796e-03
      2801.9500                     5.851428e-03
      2801.9600                     5.914058e-03
      2801.9700                     5.976688e-03
      2801.9800                     6.039317e-03
      2801.9900                     6.101946e-03
      2802.0000                     6.164574e-03
      2802.0100                     6.227203e-03
      2802.0200                     6.289831e-03
      2802.0300                     6.295816e-03
      2802.0400                     6.230881e-03
      2802.0500                     6.165946e-03
      2802.0600                     6.101013e-03
      2802.0700                     6.036079e-03
      2802.0800                     5.971147e-03
      2802.0900                     5.906215e-03
      2802.1000                     5.841283e-03
      2802.1100                     5.776353e-03
      2802.1200                     5.711422e-03
      2802.1300                     5.681279e-03
      2802.1400                     5.695123e-03
      2802.1500                     5.708967e-03
      2802.1600                     5.722811e-03
      2802.1700                     5.736655e-03
      2802.1800                     5.750499e-03
      2802.1900                     5.764342e-03
      2802.2000                     5.778186e-03
      2802.2100                     5.792029e-03
      2802.2200                     5.805872e-03
      2802.2300                     5.775827e-03
      2802.2400                     5.689733e-03
      2802.2500                     5.603640e-03
      2802.2600                     5.517547e-03
      2802.2700                     5.431456e-03
      2802.2800                     5.345365e-03
      2802.2900                     5.259275e-03
      2802.3000                     5.173186e-03
      2802.3100                     5.087098e-03
      2802.3200                     5.001011e-03
      2802.3300                     4.958380e-03
      2802.3400                     4.971800e-03
      2802.3500                     4.985219e-03
      2802.3600                     4.998639e-03
      2802.3700                     5.012058e-03
      2802.3800                     5.025477e-03
      2802.3900                     5.038896e-03
      2802.4000                     5.052315e-03
      2802.4100                     5.065734e-03
      2802.4200                     5.079152e-03
      2802.4300                     5.063315e-03
      2802.4400                     5.009365e-03
      2802.4500                     4.955416e-03
      2802.4600                     4.901467e-03
      2802.4700                     4.847519e-03
      2802.4800                     4.793572e-03
      2802.4900                     4.739624e-03
      2802.5000                     4.685678e-03
      2802.5100                     4.631732e-03
      2802.5200                     4.577787e-03
      2802.5300                     4.551188e-03
      2802.5400                     4.560571e-03
      2802.5500                     4.569954e-03
      2802.5600                     4.579337e-03
      2802.5700                     4.588719e-03
      2802.5800                     4.598102e-03
      2802.5900                     4.607484e-03
      2802.6000                     4.616866e-03
      2802.6100                     4.626249e-03
      2802.6200                     4.635631e-03
      2802.6300                     4.645065e-03
      2802.6400                     4.654569e-03
      2802.6500                     4.664072e-03
      2802.6600                     4.673575e-03
      2802.6700                     4.683079e-03
      2802.6800                     4.692582e-03
      2802.6900                     4.702085e-03
      2802.7000                     4.711588e-03
      2802.7100                     4.721091e-03
      2802.7200                     4.730594e-03
      2802.7300                     4.707189e-03
      2802.7400                     4.639615e-03
      2802.7500                     4.572042e-03
      2802.7600                     4.504469e-03
      2802.7700                     4.436897e-03
      2802.7800                     4.369326e-03
      2802.7900                     4.301755e-03
      2802.8000                     4.234185e-03
      2802.8100                     4.166616e-03
      2802.8200                     4.099047e-03
      2802.8300                     4.066846e-03
      2802.8400                     4.082592e-03
      2802.8500                     4.098338e-03
      2802.8600                     4.114083e-03
      2802.8700                     4.129829e-03
      2802.8800                     4.145574e-03
      2802.8900                     4.161319e-03
      2802.9000                     4.177064e-03
      2802.9100                     4.192809e-03
      2802.9200                     4.208553e-03
      2802.9300                     4.244509e-03
      2802.9400                     4.308141e-03
      2802.9500                     4.371773e-03
      2802.9600                     4.435404e-03
      2802.9700                     4.499034e-03
      2802.9800                     4.562664e-03
      2802.9900                     4.626293e-03
      2803.0000                     4.689921e-03
      2803.0100                     4.753550e-03
      2803.0200                     4.817177e-03
      2803.0300                     4.899177e-03
      2803.0400                     5.006586e-03
      2803.0500                     5.113995e-03
      2803.0600                     5.221402e-03
      2803.0700                     5.328808e-03
      2803.0800                     5.436214e-03
      2803.0900                     5.543618e-03
      2803.1000                     5.651021e-03
      2803.1100                     5.758423e-03
      2803.1200                     5.865824e-03
      2803.1300                     6.205391e-03
      2803.1400                     6.869314e-03
      2803.1500                     7.533229e-03
      2803.1600                     8.197138e-03
      2803.1700                     8.861041e-03
      2803.1800                     9.524937e-03
      2803.1900                     1.018883e-02
      2803.2000                     1.085271e-02
      2803.2100                     1.151659e-02
      2803.2200                     1.218046e-02
      2803.2300                     1.275357e-02
      2803.2400                     1.319860e-02
      2803.2500                     1.364363e-02
      2803.2600                     1.408865e-02
      2803.2700                     1.453367e-02
      2803.2800                     1.497868e-02
      2803.2900                     1.542369e-02
      2803.3000                     1.586870e-02
      2803.3100                     1.631370e-02
      2803.3200                     1.675870e-02
      2803.3300                     1.696849e-02
      2803.3400                     1.684301e-02
      2803.3500                     1.671753e-02
      2803.3600                     1.659205e-02
      2803.3700                     1.646658e-02
      2803.3800                     1.634110e-02
      2803.3900                     1.621562e-02
      2803.4000                     1.609015e-02
      2803.4100                     1.596468e-02
      2803.4200                     1.583921e-02
      2803.4300                     1.569294e-02
      2803.4400                     1.551674e-02
      2803.4500                     1.534054e-02
      2803.4600                     1.516434e-02
      2803.4700                     1.498814e-02
      2803.4800                     1.481195e-02
      2803.4900                     1.463576e-02
      2803.5000                     1.445956e-02
      2803.5100                     1.428337e-02
      2803.5200                     1.410718e-02
      2803.5300                     1.404955e-02
      2803.5400                     1.416436e-02
      2803.5500                     1.427916e-02
      2803.5600                     1.439396e-02
      2803.5700                     1.450877e-02
      2803.5800                     1.462357e-02
      2803.5900                     1.473837e-02
      2803.6000                     1.485316e-02
      2803.6100                     1.496796e-02
      2803.6200                     1.508276e-02
      2803.6300                     1.506488e-02
      2803.6400                     1.485203e-02
      2803.6500                     1.463919e-02
      2803.6600                     1.442636e-02
      2803.6700                     1.421352e-02
      2803.6800                     1.400069e-02
      2803.6900                     1.378785e-02
      2803.7000                     1.357502e-02
      2803.7100                     1.336220e-02
      2803.7200                     1.314937e-02
      2803.7300                     1.278156e-02
      2803.7400                     1.218371e-02
      2803.7500                     1.158585e-02
      2803.7600                     1.098801e-02
      2803.7700                     1.039016e-02
      2803.7800                     9.792329e-03
      2803.7900                     9.194500e-03
      2803.8000                     8.596676e-03
      2803.8100                     7.998858e-03
      2803.8200                     7.401046e-03
      2803.8300                     6.929983e-03
      2803.8400                     6.648980e-03
      2803.8500                     6.367981e-03
      2803.8600                     6.086984e-03
      2803.8700                     5.805991e-03
      2803.8800                     5.524999e-03
      2803.8900                     5.244011e-03
      2803.9000                     4.963025e-03
      2803.9100                     4.682042e-03
      2803.9200                     4.401062e-03
      2803.9300                     4.213571e-03
      2803.9400                     4.167703e-03
      2803.9500                     4.121836e-03
      2803.9600                     4.075969e-03
      2803.9700                     4.030103e-03
      2803.9800                     3.984237e-03
      2803.9900                     3.938372e-03
      2804.0000                     3.892507e-03
      2804.0100                     3.846644e-03
      2804.0200                     3.800781e-03
      2804.0300                     3.770303e-03
      2804.0400                     3.763367e-03
      2804.0500                     3.756432e-03
      2804.0600                     3.749497e-03
      2804.0700                     3.742562e-03
      2804.0800                     3.735628e-03
      2804.0900                     3.728693e-03
      2804.1000                     3.721758e-03
      2804.1100                     3.714824e-03
      2804.1200                     3.707889e-03
      2804.1300                     3.717104e-03
      2804.1400                     3.751290e-03
      2804.1500                     3.785475e-03
      2804.1600                     3.819661e-03
      2804.1700                     3.853845e-03
      2804.1800                     3.888030e-03
      2804.1900                     3.922214e-03
      2804.2000                     3.956398e-03
      2804.2100                     3.990582e-03
      2804.2200                     4.024765e-03
      2804.2300                     4.070775e-03
      2804.2400                     4.135258e-03
      2804.2500                     4.199740e-03
      2804.2600                     4.264222e-03
      2804.2700                     4.328703e-03
      2804.2800                     4.393184e-03
      2804.2900                     4.457664e-03
      2804.3000                     4.522144e-03
      2804.3100                     4.586623e-03
      2804.3200                     4.651101e-03
      2804.3300                     4.700484e-03
      2804.3400                     4.726043e-03
      2804.3500                     4.751601e-03
      2804.3600                     4.777160e-03
      2804.3700                     4.802718e-03
      2804.3800                     4.828276e-03
      2804.3900                     4.853833e-03
      2804.4000                     4.879391e-03
      2804.4100                     4.904948e-03
      2804.4200                     4.930505e-03
      2804.4300                     4.960016e-03
      2804.4400                     4.995833e-03
      2804.4500                     5.031649e-03
      2804.4600                     5.067465e-03
      2804.4700                     5.103281e-03
      2804.4800                     5.139097e-03
      2804.4900                     5.174912e-03
      2804.5000                     5.210727e-03
      2804.5100                     5.246542e-03
      2804.5200                     5.282356e-03
      2804.5300                     5.304204e-03
      2804.5400                     5.303550e-03
      2804.5500                     5.302897e-03
      2804.5600                     5.302243e-03
      2804.5700                     5.301590e-03
      2804.5800                     5.300937e-03
      2804.5900                     5.300283e-03
      2804.6000                     5.299630e-03
      2804.6100                     5.298976e-03
      2804.6200                     5.298323e-03
      2804.6300                     5.319191e-03
      2804.6400                     5.375092e-03
      2804.6500                     5.430994e-03
      2804.6600                     5.486895e-03
      2804.6700                     5.542795e-03
      2804.6800                     5.598695e-03
      2804.6900                     5.654594e-03
      2804.7000                     5.710493e-03
      2804.7100                     5.766391e-03
      2804.7200                     5.822289e-03
      2804.7300                     5.862945e-03
      2804.7400                     5.878532e-03
      2804.7500                     5.894119e-03
      2804.7600                     5.909705e-03
      2804.7700                     5.925292e-03
      2804.7800                     5.940878e-03
      2804.7900                     5.956464e-03
      2804.8000                     5.972050e-03
      2804.8100                     5.987635e-03
      2804.8200                     6.003221e-03
      2804.8300                     6.048397e-03
      2804.8400                     6.142755e-03
      2804.8500                     6.237112e-03
      2804.8600                     6.331468e-03
      2804.8700                     6.425824e-03
      2804.8800                     6.520178e-03
      2804.8900                     6.614532e-03
      2804.9000                     6.708885e-03
      2804.9100                     6.803237e-03
      2804.9200                     6.897588e-03
      2804.9300                     6.910492e-03
      2804.9400                     6.786607e-03
      2804.9500                     6.662722e-03
      2804.9600                     6.538839e-03
      2804.9700                     6.414957e-03
      2804.9800                     6.291076e-03
      2804.9900                     6.167196e-03
      2805.0000                     6.043317e-03
      2805.0100                     5.919441e-03
      2805.0200                     5.795566e-03
      2805.0300                     5.747438e-03
      2805.0400                     5.827863e-03
      2805.0500                     5.908289e-03
      2805.0600                     5.988713e-03
      2805.0700                     6.069137e-03
      2805.0800                     6.149560e-03
      2805.0900                     6.229983e-03
      2805.1000                     6.310405e-03
      2805.1100                     6.390826e-03
      2805.1200                     6.471246e-03
      2805.1300                     6.546312e-03
      2805.1400                     6.612196e-03
      2805.1500                     6.678079e-03
      2805.1600                     6.743961e-03
      2805.1700                     6.809843e-03
      2805.1800                     6.875724e-03
      2805.1900                     6.941605e-03
      2805.2000                     7.007485e-03
      2805.2100                     7.073364e-03
      2805.2200                     7.139243e-03
      2805.2300                     7.090787e-03
      2805.2400                     6.844168e-03
      2805.2500                     6.597551e-03
      2805.2600                     6.350936e-03
      2805.2700                     6.104324e-03
      2805.2800                     5.857713e-03
      2805.2900                     5.611104e-03
      2805.3000                     5.364498e-03
      2805.3100                     5.117894e-03
      2805.3200                     4.871291e-03
      2805.3300                     4.810778e-03
      2805.3400                     5.076207e-03
      2805.3500                     5.341634e-03
      2805.3600                     5.607059e-03
      2805.3700                     5.872482e-03
      2805.3800                     6.137903e-03
      2805.3900                     6.403321e-03
      2805.4000                     6.668737e-03
      2805.4100                     6.934151e-03
      2805.4200                     7.199562e-03
      2805.4300                     7.410124e-03
      2805.4400                     7.523593e-03
      2805.4500                     7.637062e-03
      2805.4600                     7.750529e-03
      2805.4700                     7.863996e-03
      2805.4800                     7.977462e-03
      2805.4900                     8.090926e-03
      2805.5000                     8.204390e-03
      2805.5100                     8.317853e-03
      2805.5200                     8.431314e-03
      2805.5300                     8.449584e-03
      2805.5400                     8.297550e-03
      2805.5500                     8.145517e-03
      2805.5600                     7.993485e-03
      2805.5700                     7.841455e-03
      2805.5800                     7.689426e-03
      2805.5900                     7.537398e-03
      2805.6000                     7.385372e-03
      2805.6100                     7.233346e-03
      2805.6200                     7.081322e-03
      2805.6300                     6.999714e-03
      2805.6400                     7.045429e-03
      2805.6500                     7.091144e-03
      2805.6600                     7.136859e-03
      2805.6700                     7.182573e-03
      2805.6800                     7.228287e-03
      2805.6900                     7.274000e-03
      2805.7000                     7.319713e-03
      2805.7100                     7.365426e-03
      2805.7200                     7.411138e-03
      2805.7300                     7.431383e-03
      2805.7400                     7.405086e-03
      2805.7500                     7.378789e-03
      2805.7600                     7.352492e-03
      2805.7700                     7.326195e-03
      2805.7800                     7.299899e-03
      2805.7900                     7.273602e-03
      2805.8000                     7.247306e-03
      2805.8100                     7.221010e-03
      2805.8200                     7.194715e-03
      2805.8300                     7.201208e-03
      2805.8400                     7.268270e-03
      2805.8500                     7.335332e-03
      2805.8600                     7.402394e-03
      2805.8700                     7.469455e-03
      2805.8800                     7.536515e-03
      2805.8900                     7.603575e-03
      2805.9000                     7.670634e-03
      2805.9100                     7.737693e-03
      2805.9200                     7.804751e-03
      2805.9300                     7.892022e-03
      2805.9400                     8.017035e-03
      2805.9500                     8.142048e-03
      2805.9600                     8.267060e-03
      2805.9700                     8.392070e-03
      2805.9800                     8.517080e-03
      2805.9900                     8.642088e-03
      2806.0000                     8.767095e-03
